#  Table F110W_filter.tab  Thu 14:41:52 08-May-2014
#      WAVELENGTH      THROUGHPUT
#           angstroms                
     8768.301     0.000
     8769.014     0.001012331
     8769.726     0.001030502
     8770.438     0.001048715
     8771.151     0.001066943
     8771.863     0.001085163
     8772.576     0.001103378
     8773.284     0.001121339
     8773.992     0.001139316
     8774.705     0.001157433
     8775.418     0.001175565
     8776.126     0.001193589
      8776.84     0.001211778
     8777.558     0.001230082
     8778.266     0.001248153
     8778.979      0.00126639
     8779.692     0.001284618
     8780.401     0.001302761
     8781.114      0.00132102
     8781.828     0.001339321
     8782.536       0.0013598
     8783.255     0.001391568
     8783.969     0.001423148
     8784.678      0.00145454
     8785.392     0.001486175
     8786.105     0.001517838
     8786.814     0.001549313
     8787.528     0.001581032
     8788.242     0.001612778
     8788.951     0.001644335
     8789.665     0.001676137
     8790.385     0.001708228
     8791.094     0.001739868
     8791.809     0.001771797
     8792.522     0.001804839
     8793.232        0.001844
     8793.946     0.001883411
     8794.661      0.00192291
     8795.371     0.001962174
     8796.091     0.002002012
     8796.805     0.002041562
     8797.515     0.002080928
     8798.229     0.002120601
     8798.944     0.002160308
     8799.655     0.002199832
      8800.37     0.002239493
     8801.085     0.002279075
     8801.795     0.002318413
     8802.506     0.002359566
      8803.23     0.002413754
     8803.945      0.00246725
     8804.651     0.002520124
     8805.367     0.002573764
     8806.082     0.002627368
     8806.798     0.002681083
     8807.514     0.002734834
     8808.229     0.002788547
     8808.944     0.002842372
     8809.655     0.002895863
     8810.371     0.002949759
     8811.082     0.003003324
     8811.798     0.003057294
     8812.515     0.003113905
     8813.226     0.003186391
     8813.941     0.003259426
     8814.657     0.003332511
     8815.369     0.003405245
      8816.09     0.003478928
     8816.807     0.003552262
     8817.518     0.003625044
     8818.234     0.003698478
     8818.951     0.003771959
     8819.663     0.003844992
     8820.379     0.003918473
     8821.096     0.003992105
     8821.813     0.004065787
     8822.529     0.004144072
     8823.246     0.004248248
     8823.958     0.004351784
     8824.676     0.004456242
     8825.393     0.004560629
     8826.104     0.004664376
     8826.821     0.004768906
     8827.539     0.004873649
     8828.251     0.004977607
     8828.974     0.005083205
      8829.69     0.005188019
     8830.403     0.005292692
     8831.121     0.005398447
     8831.839     0.005504303
     8832.552     0.005615541
     8833.269      0.00575537
     8833.986     0.005895522
     8834.704     0.006035799
     8835.417     0.006175248
     8836.136     0.006315976
     8836.854     0.006456641
     8837.571     0.006597431
     8838.289      0.00673835
     8839.008     0.006879594
     8839.716     0.007018848
     8840.435     0.007160347
     8841.152     0.007301782
     8841.871     0.007443537
     8842.589      0.00759612
     8843.308     0.007786741
     8844.026     0.007977532
     8844.745     0.008168504
     8845.459     0.008358346
     8846.173     0.008548361
     8846.892     0.008739851
     8847.615     0.008932822
     8848.329     0.009123359
     8849.048     0.009315376
     8849.767     0.009507569
     8850.481     0.009698887
       8851.2     0.009891428
      8851.92       0.0100844
     8852.634      0.01029423
     8853.354      0.01055191
     8854.072      0.01080948
     8854.787      0.01106588
     8855.512      0.01132602
     8856.231      0.01158465
     8856.945       0.0118414
     8857.665       0.0121005
     8858.385      0.01235983
       8859.1      0.01261764
     8859.819      0.01287745
     8860.545      0.01313961
      8861.26      0.01339812
     8861.979      0.01365864
     8862.699      0.01394916
     8863.415      0.01428871
     8864.135      0.01463043
     8864.855      0.01497292
      8865.57      0.01531293
     8866.291      0.01565604
     8867.012      0.01599947
     8867.728      0.01634088
     8868.452       0.0166868
     8869.173      0.01703117
     8869.894      0.01737585
     8870.609       0.0177185
     8871.325      0.01806146
     8872.046      0.01840708
     8872.768        0.018798
     8873.488      0.01924094
     8874.209      0.01968428
      8874.93      0.02012803
     8875.651      0.02057279
     8876.367      0.02101433
     8877.084      0.02145688
     8877.805      0.02190224
     8878.526      0.02234862
     8879.248      0.02279539
     8879.965      0.02323955
      8880.69      0.02368956
     8881.407      0.02413452
     8882.129      0.02458292
     8882.851      0.02510311
     8883.567      0.02567353
     8884.289      0.02624835
     8885.012      0.02682447
     8885.729      0.02739642
     8886.455      0.02797672
     8887.178      0.02855441
     8887.895      0.02912794
     8888.617      0.02970668
     8889.339      0.03028516
     8890.057      0.03086103
     8890.778      0.03144056
     8891.501      0.03202139
     8892.219      0.03259883
     8892.941      0.03329367
     8893.664      0.03403915
     8894.387       0.0347853
     8895.109      0.03553213
     8895.832      0.03627963
      8896.55      0.03702277
     8897.272      0.03777162
     8897.995      0.03852116
     8898.714      0.03926732
     8899.441      0.04002331
     8900.165      0.04077323
     8900.883      0.04150865
     8901.606       0.0422503
     8902.324      0.04298621
     8903.053      0.04386611
     8903.771      0.04476015
     8904.495      0.04566057
     8905.218      0.04656007
     8905.932      0.04744896
      8906.66      0.04835639
     8907.389      0.04926416
     8908.104      0.05015518
     8908.827      0.05105748
     8909.551      0.05196011
     8910.274      0.05286301
     8910.999      0.05376747
     8911.723      0.05467103
     8912.441      0.05556879
     8913.171      0.05660951
     8913.891       0.0576375
     8914.609      0.05866444
     8915.334      0.05970015
     8916.059      0.06073618
     8916.783      0.06177259
     8917.502      0.06280098
     8918.227      0.06383813
     8918.946      0.06486861
     8919.671      0.06590643
     8920.401      0.06695528
     8921.121      0.06799091
     8921.846      0.06903405
      8922.57      0.07010439
     8923.291      0.07130171
     8924.016      0.07250606
     8924.741      0.07371259
     8925.466       0.0749181
     8926.191      0.07612573
     8926.917      0.07733402
     8927.637      0.07853304
     8928.362      0.07974236
     8929.088      0.08095231
     8929.809      0.08215465
     8930.534        0.083362
      8931.26      0.08456849
      8931.98      0.08576727
     8932.706      0.08703868
     8933.437      0.08843905
     8934.158      0.08982302
     8934.884       0.0912149
     8935.609      0.09260738
     8936.336      0.09400215
     8937.057      0.09538614
     8937.783      0.09678189
     8938.515      0.09818751
     8939.235      0.09957296
     8939.957       0.1009607
     8940.684       0.1023584
      8941.41       0.1037566
     8942.137       0.1051552
     8942.863       0.1066318
      8943.58       0.1081483
     8944.307       0.1096861
     8945.033       0.1112244
      8945.76       0.1127632
     8946.487       0.1143046
     8947.214       0.1158445
      8947.94       0.1173849
     8948.663       0.1189176
     8949.395       0.1204694
     8950.112       0.1219939
      8950.84        0.123546
     8951.571       0.1251071
     8952.294       0.1266502
     8953.021       0.1282861
     8953.749       0.1299464
     8954.472       0.1315963
     8955.199       0.1332581
     8955.927       0.1349207
     8956.649       0.1365729
     8957.377       0.1382371
     8958.105       0.1399042
     8958.828       0.1415587
     8959.561       0.1432364
     8960.289       0.1449023
     8961.012       0.1465504
      8961.74       0.1482124
     8962.468       0.1498736
     8963.191       0.1516131
      8963.92       0.1533651
     8964.653       0.1551293
     8965.377       0.1568706
     8966.104        0.158622
     8966.833       0.1603762
     8967.557       0.1621194
     8968.286       0.1638772
     8969.015       0.1656333
     8969.743       0.1673901
     8970.467       0.1691422
     8971.196        0.170913
     8971.925       0.1726822
     8972.654       0.1744706
     8973.383       0.1763023
     8974.112       0.1781374
     8974.831       0.1799462
     8975.565       0.1817952
      8976.29       0.1836205
      8977.02       0.1854589
     8977.749       0.1872983
     8978.479       0.1891384
     8979.208       0.1909794
     8979.938       0.1928212
     8980.667       0.1946533
     8981.387       0.1964606
     8982.116       0.1982929
     8982.846       0.2001217
     8983.576         0.20195
     8984.301       0.2037641
     8985.031       0.2055936
     8985.756        0.207409
     8986.491        0.209252
     8987.222       0.2110835
     8987.946       0.2129007
     8988.677       0.2147334
     8989.407       0.2165666
     8990.133       0.2183882
     8990.868       0.2202351
     8991.599       0.2220703
     8992.324        0.223894
     8993.055        0.225673
     8993.786        0.227441
     8994.512       0.2291955
     8995.242       0.2309623
     8995.974       0.2327321
     8996.699       0.2344884
     8997.431       0.2362594
     8998.161       0.2380287
     8998.888       0.2397891
     8999.624       0.2415738
     9000.354       0.2433321
     9001.081       0.2450677
     9001.813       0.2468153
     9002.544       0.2485517
     9003.275       0.2501865
     9004.007       0.2518215
     9004.738       0.2534568
     9005.471       0.2550945
     9006.197       0.2567193
     9006.929       0.2583552
     9007.655       0.2599805
     9008.388       0.2616191
     9009.119       0.2632556
     9009.852       0.2648946
     9010.574       0.2664995
     9011.306       0.2681208
     9012.043        0.269755
     9012.771       0.2712974
     9013.503       0.2727474
     9014.235       0.2741975
     9014.968       0.2756476
     9015.695       0.2770881
     9016.433        0.278548
     9017.155       0.2799788
     9017.897       0.2814483
     9018.631       0.2829005
     9019.354       0.2843314
     9020.086       0.2857837
     9020.819       0.2872537
     9021.547       0.2887123
      9022.28       0.2901827
     9023.013        0.291538
     9023.741       0.2928452
     9024.475       0.2941611
     9025.208       0.2954772
     9025.941       0.2967937
     9026.675       0.2981102
     9027.408       0.2994269
     9028.137       0.3007351
      9028.87       0.3020521
     9029.604       0.3033694
     9030.332       0.3046784
     9031.071       0.3060072
     9031.805       0.3073258
     9032.534       0.3086211
     9033.268       0.3097251
     9034.002       0.3108309
      9034.73       0.3119279
     9035.465       0.3130339
     9036.199       0.3141401
     9036.934       0.3152463
     9037.662       0.3163439
     9038.396       0.3174505
     9039.136       0.3185647
     9039.865       0.3196643
     9040.601       0.3207732
     9041.335       0.3218808
      9042.06       0.3229739
     9042.799       0.3239844
     9043.534       0.3248513
     9044.264       0.3257113
     9045.004       0.3265842
     9045.733       0.3274444
     9046.469       0.3283119
     9047.203        0.329178
     9047.938       0.3300457
     9048.664       0.3309018
     9049.399       0.3317695
     9050.135       0.3326413
      9050.87         0.33353
     9051.605       0.3344191
     9052.341       0.3353083
     9053.076       0.3360062
     9053.807       0.3366534
     9054.547       0.3373095
     9055.273       0.3379536
     9056.009       0.3386056
     9056.744       0.3392579
      9057.48       0.3399111
     9058.217       0.3405645
     9058.952       0.3412172
     9059.684       0.3418666
      9060.42       0.3425089
     9061.156       0.3431422
     9061.887       0.3437707
     9062.623       0.3443693
     9063.359        0.344813
     9064.091       0.3452536
     9064.828       0.3456979
     9065.569       0.3461446
     9066.301       0.3465855
     9067.037       0.3470293
     9067.774       0.3474739
     9068.506       0.3479151
     9069.243       0.3483596
     9069.979       0.3488038
     9070.717       0.3492698
     9071.454       0.3497364
      9072.19       0.3502026
     9072.928       0.3505528
      9073.66       0.3508217
     9074.397       0.3510925
     9075.135       0.3513634
     9075.867       0.3516325
     9076.604       0.3519035
     9077.342       0.3521746
     9078.074       0.3524439
     9078.817       0.3527173
     9079.555       0.3529885
     9080.282       0.3532482
     9081.021       0.3534984
     9081.764       0.3537505
     9082.496        0.353998
     9083.234       0.3540918
     9083.973       0.3541855
      9084.71       0.3542793
     9085.448       0.3543731
     9086.187       0.3544668
     9086.915       0.3545595
     9087.653       0.3546533
     9088.392       0.3547471
     9089.125       0.3548402
     9089.868       0.3549348
     9090.603       0.3550284
     9091.336       0.3551221
     9092.079       0.3552169
     9092.818       0.3552629
     9093.552        0.355247
     9094.291       0.3552308
      9095.03       0.3552147
     9095.764       0.3551987
     9096.503       0.3551827
     9097.247       0.3551662
     9097.981       0.3551501
     9098.721        0.355134
      9099.46       0.3551178
     9100.194       0.3551074
     9100.934       0.3551135
     9101.673       0.3551193
     9102.407       0.3551251
     9103.147         0.35508
     9103.887        0.355028
     9104.626       0.3549757
     9105.366       0.3549234
     9106.106       0.3548711
     9106.846       0.3548189
     9107.581       0.3547668
     9108.321       0.3547144
     9109.061       0.3546621
     9109.796         0.35461
     9110.541       0.3545415
     9111.281       0.3544675
     9112.017       0.3543941
     9112.757       0.3543188
     9113.498       0.3542411
     9114.233       0.3541638
     9114.974       0.3540862
     9115.714       0.3540081
      9116.45       0.3539309
     9117.186       0.3538537
     9117.927       0.3537758
     9118.667        0.353698
     9119.408         0.35362
     9120.154       0.3535462
     9120.891       0.3534907
     9121.632       0.3534346
     9122.372        0.353379
     9123.104       0.3533407
      9123.85       0.3533055
     9124.597       0.3532701
     9125.328       0.3532356
     9126.069       0.3532006
     9126.811       0.3531657
     9127.547       0.3531308
     9128.294       0.3530954
      9129.03       0.3530605
     9129.768       0.3530256
     9130.509       0.3529754
     9131.251       0.3529187
     9131.993        0.352862
     9132.735       0.3528191
     9133.477       0.3528073
     9134.214       0.3527956
     9134.956       0.3527837
     9135.698        0.352772
     9136.436       0.3527601
     9137.184       0.3527481
     9137.926       0.3527363
     9138.663       0.3527243
     9139.405       0.3527125
     9140.148       0.3527052
     9140.891       0.3527154
     9141.629       0.3527255
     9142.371       0.3527359
     9143.114       0.3528121
     9143.852       0.3529026
     9144.595        0.352994
     9145.338       0.3530853
     9146.081       0.3531766
     9146.824       0.3532678
     9147.567       0.3533593
     9148.306         0.35345
     9149.049       0.3535413
     9149.792       0.3536328
      9150.53       0.3537079
     9151.279       0.3537783
     9152.022       0.3538482
     9152.762       0.3539521
     9153.505        0.354124
     9154.249        0.354296
     9154.982       0.3544656
     9155.727       0.3546377
     9156.471       0.3548099
     9157.209       0.3549807
     9157.958       0.3551539
     9158.702       0.3553262
     9159.446       0.3554984
     9160.191       0.3556767
     9160.931         0.35587
      9161.67       0.3560634
     9162.414       0.3562582
     9163.158        0.356534
     9163.903       0.3568227
     9164.647       0.3571111
     9165.393          0.3574
     9166.132       0.3576866
     9166.877       0.3579758
     9167.621       0.3582643
     9168.361       0.3585516
     9169.106       0.3588409
     9169.852       0.3591302
     9170.591       0.3593996
     9171.336       0.3596669
     9172.082       0.3599347
     9172.827       0.3602306
     9173.572       0.3605666
     9174.317       0.3609026
     9175.062       0.3612389
     9175.804       0.3615732
     9176.549       0.3619094
       9177.3       0.3622483
      9178.04       0.3625823
     9178.786       0.3629191
     9179.532        0.363256
     9180.272       0.3635986
     9181.019       0.3639584
     9181.765       0.3643184
     9182.506       0.3646761
     9183.252       0.3651029
     9183.998       0.3655311
     9184.739       0.3659564
     9185.485       0.3663847
     9186.236        0.366816
     9186.978       0.3672418
      9187.72       0.3676681
     9188.471       0.3680996
     9189.213       0.3685264
     9189.959       0.3689554
     9190.706       0.3693634
     9191.452       0.3697699
     9192.199       0.3701768
     9192.946       0.3706068
     9193.684       0.3710478
      9194.43       0.3714946
     9195.177       0.3719418
     9195.919       0.3723862
     9196.672       0.3728372
     9197.419       0.3732845
     9198.156       0.3737263
     9198.903       0.3741739
     9199.656       0.3746251
     9200.398       0.3750725
     9201.146       0.3755249
     9201.894       0.3759781
     9202.636       0.3764281
     9203.384       0.3768835
     9204.132       0.3773392
      9204.88       0.3777949
     9205.627         0.37825
     9206.375        0.378706
     9207.118        0.379159
     9207.866       0.3796149
     9208.614       0.3800709
     9209.363       0.3805277
     9210.106       0.3809777
     9210.854       0.3814103
     9211.603       0.3818431
     9212.347       0.3822736
       9213.1       0.3826881
     9213.849       0.3830936
     9214.592        0.383496
     9215.341       0.3839016
      9216.09       0.3843073
     9216.833         0.38471
     9217.582       0.3851156
     9218.336        0.385524
      9219.08       0.3859271
     9219.829        0.386333
     9220.578       0.3867576
     9221.322       0.3871851
     9222.071       0.3876157
     9222.821       0.3880266
     9223.565       0.3884026
     9224.314       0.3887812
      9225.06       0.3891579
     9225.809       0.3895365
     9226.559       0.3899159
     9227.308       0.3902947
     9228.058       0.3906741
     9228.808       0.3910536
     9229.558       0.3914333
     9230.297       0.3918079
     9231.047        0.392189
     9231.803        0.392573
     9232.547         0.39295
     9233.298       0.3932587
     9234.048       0.3935672
     9234.793       0.3938736
     9235.543       0.3941822
     9236.299       0.3944931
     9237.039       0.3947979
      9237.79       0.3951069
      9238.54       0.3954155
     9239.286       0.3957229
     9240.042       0.3960354
     9240.792       0.3963694
     9241.538       0.3967018
     9242.289       0.3970366
      9243.04       0.3973098
     9243.791       0.3975531
     9244.537       0.3977949
     9245.293         0.39804
     9246.044       0.3982836
     9246.791       0.3985259
     9247.542       0.3987696
     9248.293       0.3990133
      9249.04        0.399256
     9249.791       0.3994997
     9250.543       0.3997259
     9251.289       0.3999436
