#  Table F814W_filter.tab  Thu 14:45:22 08-May-2014
#     WAVELENGTH      THROUGHPUT
#         angstroms                
     6959.506    0.
     6960.694     0.001005265
     6961.887     0.001050975
     6963.075     0.001123882
     6964.264     0.001197573
     6965.461     0.001271714
      6966.65     0.001345366
     6967.844     0.001419226
     6969.034      0.00149284
     6970.227     0.001566601
     6971.421     0.001640248
     6972.611     0.001741098
     6973.806     0.001862383
     6974.997     0.001983142
     6976.191     0.002104264
     6977.387     0.002225355
     6978.582     0.002346314
     6979.773     0.002466895
     6980.965     0.002587564
     6982.161     0.002724568
     6983.357     0.002926453
     6984.553     0.003128242
     6985.746      0.00332928
     6986.942     0.003530966
     6988.135     0.003731898
     6989.333     0.003933478
      6990.53     0.004134964
     6991.723       0.0043357
     6992.921     0.004656238
     6994.115     0.005000041
     6995.317     0.005346072
     6996.511     0.005689695
     6997.706     0.006033302
     6998.904     0.006377728
       7000.1     0.006721022
     7001.299     0.007063735
     7002.498     0.007514941
     7003.697     0.008086842
     7004.894     0.008656808
     7006.089     0.009226005
     7007.293     0.009798609
      7008.49      0.01036697
      7009.69      0.01093688
     7010.887      0.01150529
     7012.092      0.01212823
     7013.286      0.01307781
     7014.487      0.01403252
     7015.688      0.01498692
     7016.886      0.01593752
     7018.092        0.016894
     7019.291      0.01784359
     7020.493      0.01879479
     7021.691      0.01974129
     7022.891      0.02118491
     7024.097      0.02276424
     7025.297      0.02433313
       7026.5      0.02590501
       7027.7      0.02747094
     7028.904      0.02904112
     7030.107      0.03060936
     7031.308      0.03217414
     7032.513      0.03416882
     7033.713      0.03662145
     7034.918      0.03908004
     7036.123      0.04153763
     7037.329      0.04399416
      7038.53      0.04643975
     7039.732      0.04888532
     7040.937      0.05133584
     7042.144       0.0539354
      7043.35      0.05727915
     7044.553      0.06060938
     7045.759      0.06394766
     7046.962      0.06727374
     7048.169      0.07060786
     7049.377       0.0739406
     7050.581       0.0772559
     7051.788       0.0805745
     7052.992      0.08462603
     7054.201      0.08879928
     7055.409      0.09296649
     7056.614      0.09711932
     7057.822       0.1012796
     7059.027       0.1054237
     7060.237        0.109581
     7061.446        0.113742
     7062.656       0.1180929
     7063.861       0.1225582
     7065.068       0.1270234
     7066.278       0.1314975
     7067.488       0.1359698
     7068.699       0.1404383
     7069.906       0.1448905
     7071.121       0.1493532
     7072.328       0.1535885
     7073.536        0.157394
     7074.748       0.1612093
     7075.956       0.1650083
     7077.167       0.1688156
     7078.376       0.1726083
     7079.592       0.1764213
     7080.801       0.1802201
      7082.01       0.1839676
     7083.227       0.1866531
     7084.437       0.1893201
      7085.65       0.1919945
      7086.86       0.1946571
     7088.074        0.197327
     7089.288       0.1999957
     7090.502       0.2026534
     7091.713       0.2052885
     7092.924       0.2071053
     7094.139       0.2087241
     7095.354       0.2103405
      7096.57       0.2119565
     7097.781       0.2135648
     7098.997       0.2151772
     7100.209       0.2167874
     7101.426       0.2184203
     7102.642       0.2196175
     7103.855       0.2204744
     7105.072        0.221333
     7106.285       0.2221883
     7107.502       0.2230459
      7108.72       0.2239031
     7109.934       0.2247567
     7111.151       0.2256123
     7112.365       0.2262992
     7113.584       0.2266574
     7114.802       0.2270148
     7116.021       0.2273722
     7117.236       0.2277282
     7118.451       0.2280838
     7119.675       0.2284414
      7120.89       0.2287786
      7122.11       0.2290789
     7123.326       0.2291511
     7124.546       0.2292234
     7125.763       0.2292953
     7126.983       0.2293673
     7128.204       0.2294392
     7129.421       0.2295107
     7130.646       0.2295955
      7131.86        0.229691
     7133.086       0.2296841
     7134.304       0.2296676
     7135.522        0.229651
     7136.748       0.2296344
     7137.967       0.2296178
     7139.189        0.229601
     7140.408       0.2295761
     7141.631       0.2295348
     7142.851       0.2294395
      7144.07       0.2293235
     7145.298       0.2292068
     7146.518       0.2290908
     7147.742       0.2289744
     7148.967       0.2288581
     7150.191       0.2287456
     7151.412       0.2286543
     7152.633       0.2285502
     7153.858       0.2284349
     7155.084       0.2283195
      7156.31       0.2282043
     7157.532       0.2280894
     7158.758       0.2279742
      7159.98       0.2278594
     7161.207       0.2277202
     7162.433        0.227568
     7163.656       0.2273947
     7164.883        0.227221
     7166.106       0.2270478
     7167.334       0.2268743
     7168.562       0.2267007
     7169.786       0.2265279
     7171.014       0.2263745
     7172.238       0.2262216
     7173.467       0.2260517
     7174.696        0.225882
     7175.925       0.2257122
      7177.15       0.2255431
     7178.375       0.2253741
     7179.605       0.2252046
     7180.835       0.2250351
     7182.065       0.2248635
     7183.292        0.224664
     7184.526       0.2244634
     7185.749       0.2242647
     7186.979       0.2240647
      7188.21       0.2238649
     7189.438       0.2236658
     7190.669       0.2234531
     7191.897       0.2232302
     7193.133        0.223001
     7194.361       0.2227731
      7195.59       0.2225452
     7196.826       0.2223161
     7198.051       0.2220891
     7199.288       0.2218602
     7200.518       0.2216429
     7201.751       0.2214391
     7202.984        0.221229
      7204.21       0.2210189
     7205.448       0.2208068
     7206.679       0.2205961
     7207.913        0.220385
     7209.144       0.2201745
     7210.383       0.2199554
     7211.614       0.2197215
     7212.845       0.2195005
     7214.081       0.2192844
     7215.316       0.2190684
     7216.552       0.2188526
     7217.785       0.2186375
     7219.021       0.2184217
     7220.254       0.2182117
     7221.486       0.2180206
     7222.728       0.2178271
     7223.961        0.217634
     7225.198       0.2174404
     7226.432       0.2172474
      7227.67       0.2170539
     7228.908       0.2168604
     7230.142       0.2166638
      7231.38       0.2164365
     7232.615       0.2162346
     7233.854       0.2160567
     7235.093       0.2158788
     7236.333        0.215701
     7237.568       0.2155238
     7238.804       0.2153467
     7240.044         0.21517
     7241.284       0.2150159
     7242.525       0.2148747
     7243.761       0.2147508
     7245.002       0.2146265
     7246.239       0.2145027
      7247.48       0.2143785
     7248.722       0.2142544
     7249.959       0.2141306
     7251.202        0.213984
     7252.439       0.2138565
     7253.686       0.2137634
     7254.924       0.2136708
     7256.163       0.2135782
     7257.406       0.2134854
     7258.646       0.2133928
     7259.893       0.2132997
     7261.132       0.2132284
     7262.376       0.2131612
      7263.62       0.2130992
     7264.856       0.2130376
     7266.105       0.2129754
     7267.346       0.2129136
      7268.59       0.2128516
     7269.832       0.2127897
     7271.081       0.2127275
     7272.322       0.2126813
     7273.568         0.21268
      7274.81       0.2126788
     7276.052       0.2126774
     7277.302        0.212676
     7278.545       0.2126744
     7279.792       0.2126729
     7281.035       0.2126519
     7282.282       0.2126287
     7283.529       0.2126121
     7284.773       0.2125955
     7286.021       0.2125788
     7287.265        0.212562
     7288.513       0.2125451
     7289.762       0.2125281
      7291.01         0.21253
     7292.255       0.2125445
       7293.5       0.2125926
      7294.75       0.2126406
        7296.       0.2126886
     7297.249       0.2127365
     7298.495       0.2127842
     7299.746       0.2128319
     7300.992       0.2128609
     7302.243       0.2128847
     7303.493       0.2129074
      7304.74         0.21293
     7305.992       0.2129525
     7307.239       0.2129748
     7308.495       0.2129971
     7309.743       0.2130192
     7310.991       0.2130599
     7312.243       0.2131095
     7313.492       0.2131767
     7314.749       0.2132442
     7315.998       0.2133112
      7317.25       0.2133782
       7318.5       0.2134449
      7319.75       0.2135115
     7321.003       0.2135594
     7322.258       0.2136026
     7323.512       0.2136461
     7324.762       0.2136893
     7326.021       0.2137326
     7327.272       0.2137756
     7328.523       0.2138184
     7329.778       0.2138612
     7331.034       0.2139234
      7332.29       0.2139866
     7333.542       0.2140381
     7334.798       0.2140896
      7336.05        0.214141
     7337.303       0.2141921
     7338.564       0.2142436
     7339.817       0.2142945
     7341.074       0.2143254
     7342.328       0.2143537
     7343.585       0.2143855
     7344.843       0.2144174
     7346.097       0.2144488
     7347.356       0.2144804
      7348.61       0.2145118
     7349.869       0.2145429
     7351.128       0.2145954
     7352.387       0.2146371
     7353.643       0.2146462
     7354.898       0.2146552
     7356.158       0.2146642
     7357.418       0.2146731
     7358.679       0.2146818
     7359.935       0.2146905
     7361.196       0.2146766
     7362.453       0.2146555
     7363.714       0.2146226
     7364.975       0.2145897
     7366.233       0.2145567
     7367.495       0.2145236
     7368.752       0.2144906
     7370.015       0.2144576
     7371.277       0.2144482
     7372.536       0.2144206
     7373.799       0.2143657
     7375.058       0.2143109
     7376.325       0.2142557
     7377.584       0.2142008
     7378.848       0.2141457
     7380.108       0.2140887
     7381.369       0.2140101
     7382.637       0.2139217
     7383.897       0.2138235
     7385.162        0.213725
     7386.423       0.2136267
     7387.692       0.2135281
     7388.954       0.2134297
     7390.216       0.2133357
     7391.481       0.2132612
     7392.744       0.2131795
     7394.014       0.2130916
     7395.276       0.2130042
     7396.543       0.2129165
     7397.806       0.2128291
     7399.069       0.2127418
     7400.341       0.2126475
     7401.604       0.2125365
     7402.873        0.212376
     7404.136       0.2121907
     7405.405       0.2120046
     7406.673       0.2118188
     7407.938       0.2116336
     7409.207        0.211448
     7410.472        0.211272
     7411.741       0.2111103
     7413.011       0.2109521
     7414.281       0.2107949
     7415.547       0.2106383
     7416.813       0.2104818
     7418.083       0.2103248
     7419.354        0.210168
     7420.625       0.2099996
     7421.892       0.2098199
     7423.164        0.209603
     7424.431        0.209382
     7425.703       0.2091603
     7426.975       0.2089389
     7428.243       0.2087183
     7429.515       0.2084971
     7430.784       0.2082997
     7432.061       0.2081155
      7433.33       0.2079316
     7434.599       0.2077478
     7435.873       0.2075633
     7437.142       0.2073797
     7438.416       0.2071956
      7439.69       0.2070114
     7440.964       0.2068099
     7442.235       0.2066021
     7443.506       0.2063879
     7444.785       0.2061725
     7446.056       0.2059585
     7447.332        0.205744
     7448.603       0.2055303
     7449.883       0.2053152
     7451.151       0.2051233
     7452.432       0.2049325
     7453.704       0.2047442
     7454.977       0.2045561
     7456.258       0.2043669
     7457.531       0.2041789
     7458.809       0.2039904
     7460.082       0.2038011
      7461.36       0.2035897
     7462.638       0.2033791
     7463.912       0.2031703
     7465.191        0.202961
     7466.465       0.2027525
     7467.745       0.2025433
     7469.023       0.2023343
     7470.303       0.2021308
     7471.579       0.2019455
     7472.854       0.2017555
     7474.134       0.2015623
     7475.415       0.2013691
     7476.695       0.2011759
     7477.972       0.2009835
     7479.253       0.2007906
      7480.53        0.200589
     7481.811       0.2003737
     7483.093       0.2002127
     7484.371       0.2000654
     7485.653       0.1999176
     7486.931       0.1997704
     7488.213       0.1996227
     7489.496       0.1994751
     7490.775        0.199342
     7492.058       0.1992177
     7493.337       0.1990845
     7494.621       0.1989509
     7495.904       0.1988173
     7497.188       0.1986838
     7498.469       0.1985507
     7499.749       0.1984176
     7501.034       0.1982593
     7502.318       0.1981058
     7503.604       0.1979966
     7504.885       0.1978879
      7506.17       0.1977787
     7507.452       0.1976699
     7508.738       0.1975608
     7510.024       0.1974522
     7511.307       0.1973664
     7512.598       0.1972778
      7513.88       0.1971868
     7515.167       0.1970955
     7516.451       0.1970045
     7517.734       0.1969135
     7519.021       0.1968221
     7520.306       0.1967259
     7521.598        0.196612
     7522.882        0.196523
     7524.171       0.1964478
     7525.459       0.1963726
     7526.745       0.1962975
     7528.034       0.1962223
     7529.319       0.1961472
     7530.609       0.1960825
     7531.899       0.1960298
     7533.189       0.1959919
     7534.476       0.1959565
     7535.762        0.195921
     7537.053       0.1958853
     7538.344       0.1958496
     7539.635       0.1958139
     7540.922       0.1957622
     7542.214       0.1957071
     7543.502       0.1956785
     7544.794       0.1956497
     7546.086       0.1956208
     7547.375       0.1955919
     7548.668       0.1955629
     7549.957        0.195534
      7551.25       0.1955267
     7552.543       0.1955291
     7553.833       0.1955476
     7555.127       0.1955661
     7556.417       0.1955845
     7557.711       0.1956028
     7559.006       0.1956211
     7560.301        0.195634
     7561.592       0.1956295
     7562.883       0.1956308
     7564.179       0.1956358
     7565.474       0.1956406
      7566.77       0.1956453
     7568.062       0.1956499
     7569.358       0.1956544
     7570.651       0.1956702
     7571.948       0.1956971
     7573.245       0.1957118
     7574.538       0.1957249
     7575.835        0.195738
     7577.129       0.1957509
     7578.431       0.1957639
     7579.725       0.1957766
      7581.02       0.1957716
     7582.322       0.1957677
     7583.617       0.1957911
     7584.916       0.1958145
     7586.211       0.1958378
      7587.51        0.195861
     7588.806       0.1958839
     7590.102       0.1959086
     7591.406       0.1959543
     7592.702       0.1959713
     7594.003       0.1959565
     7595.304       0.1959417
     7596.604       0.1959268
     7597.902        0.195912
     7599.199       0.1958971
     7600.501       0.1958733
     7601.803       0.1958355
     7603.105       0.1958293
     7604.403       0.1958322
     7605.706       0.1958349
     7607.004       0.1958376
     7608.308         0.19584
     7609.611       0.1958425
      7610.91       0.1958449
     7612.214       0.1958421
     7613.514       0.1957908
     7614.818       0.1957394
     7616.122       0.1956879
     7617.422       0.1956363
     7618.728       0.1955848
     7620.028       0.1955338
     7621.333       0.1955049
     7622.639       0.1954635
     7623.945       0.1954047
     7625.247        0.195346
     7626.548       0.1952873
     7627.855       0.1952284
     7629.162       0.1951696
     7630.468       0.1950922
     7631.771       0.1949825
     7633.079       0.1948599
     7634.382       0.1947336
     7635.689       0.1946069
     7636.998       0.1944802
     7638.301       0.1943539
      7639.61       0.1942273
     7640.915        0.194117
     7642.228       0.1940096
     7643.532       0.1938735
     7644.837       0.1937374
     7646.147       0.1936009
     7647.453       0.1934648
     7648.767        0.193328
     7650.073       0.1931908
     7651.383        0.193032
     7652.694       0.1928612
     7654.005        0.192676
     7655.312       0.1924916
     7656.619       0.1923071
      7657.93       0.1921222
     7659.238        0.191938
     7660.554       0.1917622
     7661.862       0.1916006
     7663.174       0.1914339
     7664.483       0.1912667
     7665.796        0.191099
     7667.109       0.1909313
     7668.418       0.1907644
     7669.731       0.1905969
     7671.041       0.1904124
     7672.355       0.1902158
     7673.669       0.1899893
      7674.98       0.1897636
     7676.294       0.1895375
     7677.605       0.1893121
      7678.92       0.1890862
     7680.236       0.1888645
     7681.551       0.1886611
     7682.863       0.1884538
     7684.175       0.1882429
     7685.491       0.1880315
     7686.808       0.1878202
     7688.124       0.1876091
     7689.437       0.1873987
     7690.754       0.1871753
     7692.067       0.1869431
     7693.385       0.1867172
     7694.703       0.1864917
     7696.017        0.186267
     7697.335       0.1860419
     7698.649       0.1858177
     7699.972       0.1855921
     7701.287        0.185368
     7702.602        0.185138
     7703.921       0.1848967
     7705.237       0.1846563
     7706.561       0.1844145
     7707.876       0.1841745
     7709.197       0.1839339
     7710.513       0.1837027
      7711.83       0.1834849
     7713.155       0.1832738
     7714.472       0.1830664
     7715.793       0.1828585
     7717.111       0.1826514
     7718.437        0.182443
     7719.755       0.1822362
     7721.073       0.1820119
     7722.396       0.1817842
     7723.714       0.1815623
     7725.042        0.181339
     7726.361       0.1811173
     7727.684       0.1808951
     7729.003       0.1806738
     7730.323       0.1804578
     7731.652       0.1802568
     7732.972       0.1800588
     7734.296       0.1798612
     7735.617       0.1796644
     7736.942        0.179467
     7738.268       0.1792697
     7739.589       0.1790732
     7740.915       0.1788615
     7742.236        0.178646
     7743.563       0.1784518
     7744.889       0.1782577
     7746.216       0.1780638
     7747.538       0.1778706
     7748.861       0.1776775
     7750.188       0.1774869
     7751.516       0.1773145
     7752.844        0.177154
     7754.167       0.1770041
     7755.496       0.1768537
      7756.82       0.1767038
     7758.149       0.1765536
     7759.478       0.1764034
     7760.803        0.176241
     7762.132       0.1760699
     7763.458       0.1759084
     7764.787       0.1757465
     7766.117       0.1755846
     7767.443       0.1754233
     7768.774       0.1752616
     7770.101       0.1751005
     7771.436       0.1749384
     7772.763       0.1747941
     7774.094       0.1746682
     7775.421       0.1745426
     7776.749       0.1744171
     7778.082       0.1742913
     7779.414       0.1741654
     7780.746       0.1740514
     7782.075       0.1739468
     7783.412       0.1738167
     7784.741       0.1736862
      7786.07       0.1735558
     7787.404        0.173425
     7788.734       0.1732946
     7790.072       0.1731623
     7791.402       0.1730114
     7792.737       0.1728844
